0       !Mar 26 2008 version Ca-A, moment balanced, Ellsworth M(A). Use hazFXnga7c
  24.60  50.00 0.050   !
 -125.00 -100.00 0.050   !remove antelope and carson range, KH feb 9 2007
760. 2.0        ! vs30 and dbasin
1. 200.
5        5 periods try some long
0. 1. 0. PGA
0.375 0.210 0.245
0.230 0.225 0.23
0.400 0.360 0.31
../output/NGA/aFault_MoBal.Ell.pga
19
.005 .007 .0098 .0137 .0192 .0269 .0376 .0527 .0738 .103 .145 .203 .284 .397 .556 .778 1.09 1.52 2.13 
3
13 0.3333  1000. 0.3333 0 Boore and Atkinsn April 2007
14 0.3333  1000. 0.3333 0 CB
15 0.3333  1000. 0.3333 0 CY
1.0 1. 0. 1.0-s sa
0.375 0.210 0.245
0.230 0.225 0.23
0.400 0.360 0.31
../output/NGA/aFault_MoBal.Ell.1hz
20
.0025 .00375 .00563 .00844 .0127 .0190 .0285 .0427 .0641 .0961 .144 .216 .324 .487 .730 1.09 1.64 2.46 3.69 5.54
 
3
13 0.3333  1000. 0.3333 0 Boore and Atkinsn April 2007
14 0.3333  1000. 0.3333 0 CB
15 0.3333  1000. 0.3333 0 CY
0.2 1. 0.  5hz PSA
0.375 0.210 0.245
0.230 0.225 0.23
0.400 0.360 0.31
../output/NGA/aFault_MoBal.Ell.5hz
19                        
.005 .0075 0.0113 .0169 .0253 .0380 .0570 .0854 .128 .192 .288 .432 .649 .973 1.46 2.19 3.28 4.92
 7.38 
3
13 0.3333  1000. 0.3333 0 Boore and Atkinsn April 2007
14 0.3333  1000. 0.3333 0 CB
15 0.3333  1000. 0.3333 0 CY
0.5 1. 0.  PSA
0.375 0.210 0.245
0.230 0.225 0.23
0.400 0.360 0.31
../output/NGA/aFault_MoBal.Ell.2hz
20
.0025 .005 .0075 0.0113 .0169 .0253 .0380 .0570 .0854 .128 .192 .288 .432 .649 .973 1.46 2.19 3.28 4.92 7.38 
 3
13 0.3333  1000. 0.3333 0 Boore and Atkinsn April 2007
14 0.3333  1000. 0.3333 0 CB
15 0.3333  1000. 0.3333 0 CY
2.0 1. 0.  PSA
0.375 0.210 0.245
0.230 0.225 0.23
0.400 0.360 0.31
../output/NGA/aFault_MoBal.Ell.2sc
20
.0025 .006 .0098 .0137 .0192 .0269 .0376 .0527 .0738 .103 .145 .203 .284 .397 .556 .778 1.09 1.52 2.13 3.3
3
13 0.3333  1000. 0.3333 0 Boore and Atkinsn April 2007
14 0.3334  1000. 0.3333 0 CB
15 0.3333  1000. 0.3333 0 CY
1. 1.
1
0
1
.12 5
  1  1  3  Elsinore;W          combined w/merge3.f           
 7.029 0.99270E-03 0.5000
 7.029 0.99270E-03 0.2000
 7.029 0.99270E-03 0.3000
   75.0    15.00   0.0       46.0
   7
   33.82890 -117.59000
   33.85110 -117.63600
   33.87330 -117.71700
   33.90740 -117.79200
   33.92970 -117.85200
   33.97120 -117.99200
   33.99500 -118.04800
  1  1  3  Elsinore;GI                                       
 6.889 0.12862E-02 0.5000
 6.889 0.12862E-02 0.2000
 6.889 0.12862E-02 0.3000
   90.0    13.00   0.0       37.0
   8
   33.82890 -117.59000
   33.81290 -117.54800
   33.74509 -117.46332
   33.73183 -117.44568
   33.71851 -117.42415
   33.70453 -117.40265
   33.68522 -117.37270
   33.62646 -117.27443
  1  1  3  Elsinore;T                                        
 7.066 0.13519E-03 0.5000
 7.066 0.13519E-03 0.2000
 7.066 0.13519E-03 0.3000
   90.0    14.00   0.0       52.0
  10
   33.66770 -117.38900
   33.63098 -117.31566
   33.61160 -117.28099
   33.55897 -117.20448
   33.52894 -117.17214
   33.49754 -117.14172
   33.42297 -117.05333
   33.39140 -117.03091
   33.37030 -117.01517
   33.34092 -117.00819
  1  1  3  Elsinore;J                                        
 7.354 0.41132E-04 0.5000
 7.354 0.41132E-04 0.2000
 7.354 0.41132E-04 0.3000
   84.0    19.00   0.0       75.0
  11
   32.94965 -116.35568
   32.98262 -116.40701
   33.01088 -116.46024
   33.04934 -116.51917
   33.12250 -116.62800
   33.17807 -116.69025
   33.20868 -116.72922
   33.24650 -116.79100
   33.27900 -116.84400
   33.33200 -116.95200
   33.34090 -117.00820
  1  1  3  Elsinore;CM                                       
 6.914 0.11175E-02 0.5000
 6.914 0.11175E-02 0.2000
 6.914 0.11175E-02 0.3000
   82.0    13.00   0.0       39.0
   6
   32.77900 -116.00600
   32.81440 -116.09900
   32.83770 -116.17800
   32.88921 -116.23022
   32.93081 -116.26443
   32.97477 -116.33667
  1  1  3  Elsinore;W+GI                                     
 7.266 0.27038E-04 0.5000
 7.266 0.27038E-04 0.2000
 7.266 0.27038E-04 0.3000
   81.3    14.00   0.0       83.0
  14
   33.62646 -117.27443
   33.68522 -117.37270
   33.70453 -117.40265
   33.71851 -117.42415
   33.73183 -117.44568
   33.74509 -117.46332
   33.81290 -117.54800
   33.82890 -117.59000
   33.85110 -117.63600
   33.87330 -117.71700
   33.90740 -117.79200
   33.92970 -117.85200
   33.97120 -117.99200
   33.99500 -118.04800
  1  1  3  Elsinore;GI+T                                     
 7.288 0.13519E-03 0.5000
 7.288 0.13519E-03 0.2000
 7.288 0.13519E-03 0.3000
   90.0    14.00   0.0       78.0
  15
   33.82890 -117.59000
   33.81290 -117.54800
   33.74509 -117.46332
   33.73183 -117.44568
   33.71851 -117.42415
   33.70453 -117.40265
   33.68522 -117.37270
   33.61160 -117.28099
   33.55897 -117.20448
   33.52894 -117.17214
   33.49754 -117.14172
   33.42297 -117.05333
   33.39140 -117.03091
   33.37030 -117.01517
   33.34092 -117.00819
  1  1  3  Elsinore;T+J                                      
 7.535 0.13519E-03 0.5000
 7.535 0.13519E-03 0.2000
 7.535 0.13519E-03 0.3000
   86.0    17.00   0.0      127.0
  20
   32.94965 -116.35568
   32.98262 -116.40701
   33.01088 -116.46024
   33.04934 -116.51917
   33.12250 -116.62800
   33.17807 -116.69025
   33.20868 -116.72922
   33.24650 -116.79100
   33.27900 -116.84400
   33.33200 -116.95200
   33.34092 -117.00819
   33.37030 -117.01517
   33.39140 -117.03091
   33.42297 -117.05333
   33.49754 -117.14172
   33.52894 -117.17214
   33.55897 -117.20448
   33.61160 -117.28099
   33.63098 -117.31566
   33.66770 -117.38900
  1  1  3  Elsinore;J+CM                                     
 7.489 0.18870E-03 0.5000
 7.489 0.18870E-03 0.2000
 7.489 0.18870E-03 0.3000
   83.5    17.00   0.0      118.0
  17
   32.77900 -116.00600
   32.81440 -116.09900
   32.83770 -116.17800
   32.88921 -116.23022
   32.93081 -116.26443
   32.97477 -116.33667
   32.94965 -116.35568
   32.98262 -116.40701
   33.01088 -116.46024
   33.04934 -116.51917
   33.12250 -116.62800
   33.17807 -116.69025
   33.20868 -116.72922
   33.24650 -116.79100
   33.27900 -116.84400
   33.33200 -116.95200
   33.34090 -117.00820
  1  1  3  Elsinore;W+GI+T                                   
 7.478 0.27038E-04 0.5000
 7.478 0.27038E-04 0.2000
 7.478 0.27038E-04 0.3000
   83.6    14.00   0.0      124.0
  21
   33.34092 -117.00819
   33.37030 -117.01517
   33.39140 -117.03091
   33.42297 -117.05333
   33.49754 -117.14172
   33.52894 -117.17214
   33.55897 -117.20448
   33.61160 -117.28099
   33.68522 -117.37270
   33.70453 -117.40265
   33.71851 -117.42415
   33.73183 -117.44568
   33.74509 -117.46332
   33.81290 -117.54800
   33.82890 -117.59000
   33.85110 -117.63600
   33.87330 -117.71700
   33.90740 -117.79200
   33.92970 -117.85200
   33.97120 -117.99200
   33.99500 -118.04800
  1  1  3  Elsinore;GI+T+J                                   
 7.623 0.13519E-03 0.5000
 7.623 0.13519E-03 0.2000
 7.623 0.13519E-03 0.3000
   86.3    17.00   0.0      153.0
  25
   32.94965 -116.35568
   32.98262 -116.40701
   33.01088 -116.46024
   33.04934 -116.51917
   33.12250 -116.62800
   33.17807 -116.69025
   33.20868 -116.72922
   33.24650 -116.79100
   33.27900 -116.84400
   33.33200 -116.95200
   33.34092 -117.00819
   33.37030 -117.01517
   33.39140 -117.03091
   33.42297 -117.05333
   33.49754 -117.14172
   33.52894 -117.17214
   33.55897 -117.20448
   33.61160 -117.28099
   33.68522 -117.37270
   33.70453 -117.40265
   33.71851 -117.42415
   33.73183 -117.44568
   33.74509 -117.46332
   33.81290 -117.54800
   33.82890 -117.59000
  1  1  3  Elsinore;T+J+CM                                   
 7.628 0.30288E-03 0.5000
 7.628 0.30288E-03 0.2000
 7.628 0.30288E-03 0.3000
   85.3    16.00   0.0      169.0
  26
   32.77900 -116.00600
   32.81440 -116.09900
   32.83770 -116.17800
   32.88921 -116.23022
   32.93081 -116.26443
   32.97477 -116.33667
   32.94965 -116.35568
   32.98262 -116.40701
   33.01088 -116.46024
   33.04934 -116.51917
   33.12250 -116.62800
   33.17807 -116.69025
   33.20868 -116.72922
   33.24650 -116.79100
   33.27900 -116.84400
   33.33200 -116.95200
   33.34092 -117.00819
   33.37030 -117.01517
   33.39140 -117.03091
   33.42297 -117.05333
   33.49754 -117.14172
   33.52894 -117.17214
   33.55897 -117.20448
   33.61160 -117.28099
   33.63098 -117.31566
   33.66770 -117.38900
  1  1  3  Elsinore;W+GI+T+J                                 
 7.722 0.27038E-04 0.5000
 7.722 0.27038E-04 0.2000
 7.722 0.27038E-04 0.3000
   83.8    16.00   0.0      199.0
  31
   32.94965 -116.35568
   32.98262 -116.40701
   33.01088 -116.46024
   33.04934 -116.51917
   33.12250 -116.62800
   33.17807 -116.69025
   33.20868 -116.72922
   33.24650 -116.79100
   33.27900 -116.84400
   33.33200 -116.95200
   33.34092 -117.00819
   33.37030 -117.01517
   33.39140 -117.03091
   33.42297 -117.05333
   33.49754 -117.14172
   33.52894 -117.17214
   33.55897 -117.20448
   33.61160 -117.28099
   33.68522 -117.37270
   33.70453 -117.40265
   33.71851 -117.42415
   33.73183 -117.44568
   33.74509 -117.46332
   33.81290 -117.54800
   33.82890 -117.59000
   33.85110 -117.63600
   33.87330 -117.71700
   33.90740 -117.79200
   33.92970 -117.85200
   33.97120 -117.99200
   33.99500 -118.04800
  1  1  3  Elsinore;GI+T+J+CM                                
 7.701 0.19837E-03 0.5000
 7.701 0.19837E-03 0.2000
 7.701 0.19837E-03 0.3000
   85.5    16.00   0.0      195.0
  31
   32.77900 -116.00600
   32.81440 -116.09900
   32.83770 -116.17800
   32.88921 -116.23022
   32.93081 -116.26443
   32.97477 -116.33667
   32.94965 -116.35568
   32.98262 -116.40701
   33.01088 -116.46024
   33.04934 -116.51917
   33.12250 -116.62800
   33.17807 -116.69025
   33.20868 -116.72922
   33.24650 -116.79100
   33.27900 -116.84400
   33.33200 -116.95200
   33.34092 -117.00819
   33.37030 -117.01517
   33.39140 -117.03091
   33.42297 -117.05333
   33.49754 -117.14172
   33.52894 -117.17214
   33.55897 -117.20448
   33.61160 -117.28099
   33.68522 -117.37270
   33.70453 -117.40265
   33.71851 -117.42415
   33.73183 -117.44568
   33.74509 -117.46332
   33.81290 -117.54800
   33.82890 -117.59000
  1  1  3  Elsinore;W+GI+T+J+CM                              
 7.785 0.27038E-04 0.5000
 7.785 0.27038E-04 0.2000
 7.785 0.27038E-04 0.3000
   83.5    16.00   0.0      241.0
  37
   32.77900 -116.00600
   32.81440 -116.09900
   32.83770 -116.17800
   32.88921 -116.23022
   32.93081 -116.26443
   32.97477 -116.33667
   32.94965 -116.35568
   32.98262 -116.40701
   33.01088 -116.46024
   33.04934 -116.51917
   33.12250 -116.62800
   33.17807 -116.69025
   33.20868 -116.72922
   33.24650 -116.79100
   33.27900 -116.84400
   33.33200 -116.95200
   33.34092 -117.00819
   33.37030 -117.01517
   33.39140 -117.03091
   33.42297 -117.05333
   33.49754 -117.14172
   33.52894 -117.17214
   33.55897 -117.20448
   33.61160 -117.28099
   33.68522 -117.37270
   33.70453 -117.40265
   33.71851 -117.42415
   33.73183 -117.44568
   33.74509 -117.46332
   33.81290 -117.54800
   33.82890 -117.59000
   33.85110 -117.63600
   33.87330 -117.71700
   33.90740 -117.79200
   33.92970 -117.85200
   33.97120 -117.99200
   33.99500 -118.04800
  1  1  3  Garlock;GE                                        
 6.915 0.38826E-03 0.5000
 6.915 0.38826E-03 0.2000
 6.915 0.38826E-03 0.3000
   90.0    12.00   0.0       45.0
   5
   35.59833 -116.87894
   35.59671 -116.81796
   35.59358 -116.59081
   35.58640 -116.46697
   35.59040 -116.37972
  1  1  3  Garlock;GC                                        
 7.306 0.99988E-04 0.5000
 7.306 0.99988E-04 0.2000
 7.306 0.99988E-04 0.3000
   90.0    12.00   0.0      111.0
   6
   35.28346 -118.02395
   35.42322 -117.74931
   35.49720 -117.48687
   35.56760 -117.15792
   35.60182 -117.01067
   35.59833 -116.87894
  1  1  3  Garlock;GW                                        
 7.311 0.23585E-03 0.5000
 7.311 0.23585E-03 0.2000
 7.311 0.23585E-03 0.3000
   90.0    13.00   0.7       98.0
  11
   34.82362 -118.91833
   34.82844 -118.87123
   34.84924 -118.82281
   34.88225 -118.77081
   34.93137 -118.66699
   34.99577 -118.47466
   35.04770 -118.37540
   35.07881 -118.33260
   35.18647 -118.11913
   35.22325 -118.06134
   35.27129 -118.01031
  1  1  3  Garlock;GE+GC                                     
 7.454 0.96687E-04 0.5000
 7.454 0.96687E-04 0.2000
 7.454 0.96687E-04 0.3000
   90.0    12.00   0.0      156.0
  10
   35.59040 -116.37972
   35.58640 -116.46697
   35.59358 -116.59081
   35.59671 -116.81796
   35.59833 -116.87894
   35.60182 -117.01067
   35.56760 -117.15792
   35.49720 -117.48687
   35.42322 -117.74931
   35.28346 -118.02395
  1  1  3  Garlock;GC+GW                                     
 7.609 0.64641E-03 0.5000
 7.609 0.64641E-03 0.2000
 7.609 0.64641E-03 0.3000
   90.0    12.00   0.4      210.0
  17
   34.82362 -118.91833
   34.82844 -118.87123
   34.84924 -118.82281
   34.88225 -118.77081
   34.93137 -118.66699
   34.99577 -118.47466
   35.04770 -118.37540
   35.07881 -118.33260
   35.18647 -118.11913
   35.22325 -118.06134
   35.27129 -118.01031
   35.28346 -118.02395
   35.42322 -117.74931
   35.49720 -117.48687
   35.56760 -117.15792
   35.60182 -117.01067
   35.59833 -116.87894
  1  1  3  Garlock;GE+GC+GW                                  
 7.689 0.63233E-03 0.5000
 7.689 0.63233E-03 0.2000
 7.689 0.63233E-03 0.3000
   90.0    12.00   0.3      256.0
  21
   35.59040 -116.37972
   35.58640 -116.46697
   35.59358 -116.59081
   35.59671 -116.81796
   35.59833 -116.87894
   35.60182 -117.01067
   35.56760 -117.15792
   35.49720 -117.48687
   35.42322 -117.74931
   35.28346 -118.02395
   35.27129 -118.01031
   35.22325 -118.06134
   35.18647 -118.11913
   35.07881 -118.33260
   35.04770 -118.37540
   34.99577 -118.47466
   34.93137 -118.66699
   34.88225 -118.77081
   34.84924 -118.82281
   34.82844 -118.87123
   34.82362 -118.91833
  1  1  3  San Jacinto;SBV                                   
 7.061 0.48067E-03 0.5000
 7.061 0.17168E-02 0.2000
 7.061 0.48067E-03 0.3000
   90.0    16.00   0.0       45.0
   6
   34.29360 -117.56500
   34.18200 -117.40300
   34.19170 -117.38900
   34.15880 -117.36400
   34.10130 -117.32500
   34.01700 -117.23700
  1  1  3  San Jacinto;SJV                                   
 7.037 0.48067E-03 0.5000
 7.037 0.13103E-02 0.2000
 7.037 0.48067E-03 0.3000
   90.0    16.00   0.0       43.0
   6
   34.01700 -117.23700
   34.00670 -117.22200
   33.90453 -117.08958
   33.84928 -117.01205
   33.80536 -116.93905
   33.75567 -116.90302
  1  1  3  San Jacinto;A                                     
 7.277 0.96135E-04 0.5000
 7.277 0.96135E-04 0.2000
 7.277 0.96135E-04 0.3000
   90.0    17.00   0.0       71.0
   7
   33.89068 -117.10829
   33.77780 -116.97900
   33.76173 -116.96198
   33.73643 -116.91430
   33.69667 -116.84472
   33.51120 -116.54900
   33.48955 -116.51330
  1  1  3  San Jacinto;C                                     
 7.095 0.96135E-04 0.5000
 7.095 0.96135E-04 0.2000
 7.095 0.96135E-04 0.3000
   90.0    17.00   0.0       47.0
   7
   33.48955 -116.51330
   33.41660 -116.39300
   33.39600 -116.33900
   33.38390 -116.29700
   33.31500 -116.21000
   33.28540 -116.14700
   33.25580 -116.09900
  1  1  3  San Jacinto;CC                                    
 7.033 0.48067E-03 0.5000
 7.033 0.48067E-03 0.2000
 7.033 0.48067E-03 0.3000
   90.0    16.00   0.0       43.0
   4
   33.46880 -116.54300
   33.42040 -116.47000
   33.26360 -116.28300
   33.20660 -116.20500
  1  1  3  San Jacinto;B                                     
 6.806 0.48067E-03 0.5000
 6.806 0.48067E-03 0.2000
 6.806 0.48067E-03 0.3000
   90.0    12.00   0.7       34.0
   6
   33.20660 -116.20500
   33.18220 -116.16400
   33.14340 -116.12900
   33.09760 -116.05800
   33.02970 -116.01100
   33.00100 -115.94300
  1  1  3  San Jacinto;SM                                    
 6.713 0.16207E-02 0.5000
 6.713 0.16207E-02 0.2000
 6.713 0.16207E-02 0.3000
   90.0    12.00   0.0       26.0
   3
   33.00100 -115.94300
   32.93785 -115.80666
   32.88420 -115.69800
  1  1  3  San Jacinto;SBV+SJV                               
 7.350 0.48067E-03 0.5000
 7.350 0.52051E-03 0.2000
 7.350 0.48067E-03 0.3000
   90.0    16.00   0.0       88.0
  11
   34.29360 -117.56500
   34.18200 -117.40300
   34.19170 -117.38900
   34.15880 -117.36400
   34.10130 -117.32500
   34.01700 -117.23700
   34.00670 -117.22200
   33.90453 -117.08958
   33.84928 -117.01205
   33.80536 -116.93905
   33.75567 -116.90302
  1  1  3  San Jacinto;SJV+A                                 
 7.474 0.48067E-03 0.5000
 7.474 0.48067E-03 0.2000
 7.474 0.48067E-03 0.3000
   90.0    17.00   0.0       89.0
   7
   34.01700 -117.23700
   34.00670 -117.22200
   33.90453 -117.08958
   33.73643 -116.91430
   33.69667 -116.84472
   33.51120 -116.54900
   33.48955 -116.51330
  1  1  3  San Jacinto;A+C                                   
 7.497 0.13071E-02 0.5000
 7.497 0.22825E-02 0.2000
 7.497 0.86131E-03 0.3000
   90.0    17.00   0.0      118.0
  13
   33.89068 -117.10829
   33.77780 -116.97900
   33.76173 -116.96198
   33.73643 -116.91430
   33.69667 -116.84472
   33.51120 -116.54900
   33.48955 -116.51330
   33.41660 -116.39300
   33.39600 -116.33900
   33.38390 -116.29700
   33.31500 -116.21000
   33.28540 -116.14700
   33.25580 -116.09900
  1  1  3  San Jacinto;A+CC                                  
 7.473 0.96135E-04 0.5000
 7.473 0.96135E-04 0.2000
 7.473 0.96135E-04 0.3000
   90.0    16.00   0.0      118.0
  11
   33.20660 -116.20500
   33.26360 -116.28300
   33.42040 -116.47000
   33.46880 -116.54300
   33.48955 -116.51330
   33.51120 -116.54900
   33.69667 -116.84472
   33.73643 -116.91430
   33.76173 -116.96198
   33.77780 -116.97900
   33.89068 -117.10829
  1  1  3  San Jacinto;CC+B                                  
 7.235 0.48067E-03 0.5000
 7.235 0.48067E-03 0.2000
 7.235 0.48067E-03 0.3000
   90.0    14.00   0.2       77.0
   9
   33.46880 -116.54300
   33.42040 -116.47000
   33.26360 -116.28300
   33.20660 -116.20500
   33.18220 -116.16400
   33.14340 -116.12900
   33.09760 -116.05800
   33.02970 -116.01100
   33.00100 -115.94300
  1  1  3  San Jacinto;B+SM                                  
 7.063 0.48067E-03 0.5000
 7.063 0.48067E-03 0.2000
 7.063 0.48067E-03 0.3000
   90.0    12.00   0.4       61.0
   8
   33.20660 -116.20500
   33.18220 -116.16400
   33.14340 -116.12900
   33.09760 -116.05800
   33.02970 -116.01100
   33.00100 -115.94300
   32.93785 -115.80666
   32.88420 -115.69800
  1  1  3  San Jacinto;SBV+SJV+A                             
 7.616 0.48067E-03 0.5000
 7.616 0.48067E-03 0.2000
 7.616 0.48067E-03 0.3000
   90.0    16.00   0.0      134.0
  12
   34.29360 -117.56500
   34.18200 -117.40300
   34.19170 -117.38900
   34.15880 -117.36400
   34.10130 -117.32500
   34.01700 -117.23700
   34.00670 -117.22200
   33.90453 -117.08958
   33.73643 -116.91430
   33.69667 -116.84472
   33.51120 -116.54900
   33.48955 -116.51330
  1  1  3  San Jacinto;SJV+A+C                               
 7.626 0.48067E-03 0.5000
 7.626 0.48067E-03 0.2000
 7.626 0.48067E-03 0.3000
   90.0    17.00   0.0      136.0
  13
   34.01700 -117.23700
   34.00670 -117.22200
   33.90453 -117.08958
   33.73643 -116.91430
   33.69667 -116.84472
   33.51120 -116.54900
   33.48955 -116.51330
   33.41660 -116.39300
   33.39600 -116.33900
   33.38390 -116.29700
   33.31500 -116.21000
   33.28540 -116.14700
   33.25580 -116.09900
  1  1  3  San Jacinto;SJV+A+CC                              
 7.609 0.96135E-04 0.5000
 7.609 0.96135E-04 0.2000
 7.609 0.96135E-04 0.3000
   90.0    16.00   0.0      136.0
  11
   33.20660 -116.20500
   33.26360 -116.28300
   33.42040 -116.47000
   33.46880 -116.54300
   33.48955 -116.51330
   33.51120 -116.54900
   33.69667 -116.84472
   33.73643 -116.91430
   33.90453 -117.08958
   34.00670 -117.22200
   34.01700 -117.23700
  1  1  3  San Jacinto;A+CC+B                                
 7.558 0.96135E-04 0.5000
 7.558 0.96135E-04 0.2000
 7.558 0.96135E-04 0.3000
   90.0    15.00   0.1      152.0
  16
   33.00100 -115.94300
   33.02970 -116.01100
   33.09760 -116.05800
   33.14340 -116.12900
   33.18220 -116.16400
   33.20660 -116.20500
